Frequency (GHz)	Ang(Vcomp(M_PROBE.VP1,1)) (Deg) : FINAL Circuit 1.AP_HB (Pwr = 10 dBm)	Ang(Vcomp(M_PROBE.VP1,1)) (Deg) : FINAL Circuit 1.AP_HB (Pwr = 11 dBm)	Ang(Vcomp(M_PROBE.VP1,1)) (Deg) : FINAL Circuit 1.AP_HB (Pwr = 12 dBm)	Ang(Vcomp(M_PROBE.VP1,1)) (Deg) : FINAL Circuit 1.AP_HB (Pwr = 13 dBm)	Ang(Vcomp(M_PROBE.VP1,1)) (Deg) : FINAL Circuit 1.AP_HB (Pwr = 14 dBm)	Ang(Vcomp(M_PROBE.VP1,1)) (Deg) : FINAL Circuit 1.AP_HB (Pwr = 15 dBm)	Ang(Vcomp(M_PROBE.VP1,1)) (Deg) : FINAL Circuit 1.AP_HB (Pwr = 16 dBm)	Ang(Vcomp(M_PROBE.VP1,1)) (Deg) : FINAL Circuit 1.AP_HB (Pwr = 17 dBm)	Ang(Vcomp(M_PROBE.VP1,1)) (Deg) : FINAL Circuit 1.AP_HB (Pwr = 18 dBm)	Ang(Vcomp(M_PROBE.VP1,1)) (Deg) : FINAL Circuit 1.AP_HB (Pwr = 19 dBm)	Ang(Vcomp(M_PROBE.VP1,1)) (Deg) : FINAL Circuit 1.AP_HB (Pwr = 20 dBm)	Ang(Vcomp(M_PROBE.VP1,1)) (Deg) : FINAL Circuit 1.AP_HB (Pwr = 21 dBm)	Ang(Vcomp(M_PROBE.VP1,1)) (Deg) : FINAL Circuit 1.AP_HB (Pwr = 22 dBm)	Ang(Vcomp(M_PROBE.VP1,1)) (Deg) : FINAL Circuit 1.AP_HB (Pwr = 23 dBm)	Ang(Vcomp(M_PROBE.VP1,1)) (Deg) : FINAL Circuit 1.AP_HB (Pwr = 24 dBm)	Ang(Vcomp(M_PROBE.VP1,1)) (Deg) : FINAL Circuit 1.AP_HB (Pwr = 25 dBm)	Ang(Vcomp(M_PROBE.VP2,1)) (Deg) : FINAL Circuit 1.AP_HB (Pwr = 10 dBm)	Ang(Vcomp(M_PROBE.VP2,1)) (Deg) : FINAL Circuit 1.AP_HB (Pwr = 11 dBm)	Ang(Vcomp(M_PROBE.VP2,1)) (Deg) : FINAL Circuit 1.AP_HB (Pwr = 12 dBm)	Ang(Vcomp(M_PROBE.VP2,1)) (Deg) : FINAL Circuit 1.AP_HB (Pwr = 13 dBm)	Ang(Vcomp(M_PROBE.VP2,1)) (Deg) : FINAL Circuit 1.AP_HB (Pwr = 14 dBm)	Ang(Vcomp(M_PROBE.VP2,1)) (Deg) : FINAL Circuit 1.AP_HB (Pwr = 15 dBm)	Ang(Vcomp(M_PROBE.VP2,1)) (Deg) : FINAL Circuit 1.AP_HB (Pwr = 16 dBm)	Ang(Vcomp(M_PROBE.VP2,1)) (Deg) : FINAL Circuit 1.AP_HB (Pwr = 17 dBm)	Ang(Vcomp(M_PROBE.VP2,1)) (Deg) : FINAL Circuit 1.AP_HB (Pwr = 18 dBm)	Ang(Vcomp(M_PROBE.VP2,1)) (Deg) : FINAL Circuit 1.AP_HB (Pwr = 19 dBm)	Ang(Vcomp(M_PROBE.VP2,1)) (Deg) : FINAL Circuit 1.AP_HB (Pwr = 20 dBm)	Ang(Vcomp(M_PROBE.VP2,1)) (Deg) : FINAL Circuit 1.AP_HB (Pwr = 21 dBm)	Ang(Vcomp(M_PROBE.VP2,1)) (Deg) : FINAL Circuit 1.AP_HB (Pwr = 22 dBm)	Ang(Vcomp(M_PROBE.VP2,1)) (Deg) : FINAL Circuit 1.AP_HB (Pwr = 23 dBm)	Ang(Vcomp(M_PROBE.VP2,1)) (Deg) : FINAL Circuit 1.AP_HB (Pwr = 24 dBm)	Ang(Vcomp(M_PROBE.VP2,1)) (Deg) : FINAL Circuit 1.AP_HB (Pwr = 25 dBm)
5	-172.644	-172.76	-172.844	-172.92	-172.93	-172.937	-172.939	-172.925	-172.849	-172.774	-172.61	-172.388	-172.113	-171.78	-171.35	-170.844	-125.946	-126.039	-126.098	-126.148	-126.131	-126.108	-126.078	-126.031	-125.918	-125.802	-125.59	-125.311	-124.97	-124.558	-124.035	-123.418
5.1	-178.357	-178.399	-178.456	-178.508	-178.469	-178.414	-178.35	-178.264	-178.113	-177.925	-177.723	-177.485	-177.2	-176.873	-176.481	-175.99	-131.022	-131.041	-131.076	-131.104	-131.038	-130.955	-130.86	-130.741	-130.553	-130.323	-130.074	-129.78	-129.43	-129.027	-128.544	-127.943
5.2	176.114	176.117	176.102	176.084	176.136	176.197	176.299	176.461	176.691	176.984	177.31	177.617	177.917	178.252	178.664	179.172	-135.931	-135.907	-135.901	-135.897	-135.82	-135.734	-135.602	-135.409	-135.142	-134.806	-134.43	-134.067	-133.703	-133.293	-132.79	-132.171
5.3	170.68	170.762	170.815	170.82	170.865	170.976	171.135	171.355	171.637	171.971	172.39	172.824	173.227	173.605	174.022	174.531	-140.768	-140.666	-140.593	-140.567	-140.499	-140.363	-140.177	-139.925	-139.607	-139.229	-138.761	-138.269	-137.801	-137.347	-136.84	-136.221
5.4	165.343	165.511	165.625	165.71	165.799	165.965	166.168	166.407	166.709	167.07	167.498	167.989	168.502	169.031	169.531	170.015	-145.527	-145.34	-145.207	-145.102	-144.991	-144.801	-144.571	-144.302	-143.965	-143.563	-143.086	-142.538	-141.958	-141.352	-140.76	-140.167
5.5	160.066	160.28	160.502	160.696	160.863	161.061	161.266	161.532	161.862	162.232	162.653	163.171	163.726	164.321	164.938	165.519	-150.246	-150.014	-149.773	-149.559	-149.371	-149.15	-148.92	-148.624	-148.26	-147.85	-147.383	-146.809	-146.19	-145.517	-144.806	-144.114
5.6	153.384	153.625	153.918	154.19	154.455	154.726	155.04	155.332	155.663	156.036	156.449	156.907	157.44	158.037	158.682	159.382	-156.274	-156.017	-155.705	-155.415	-155.13	-154.837	-154.498	-154.178	-153.816	-153.405	-152.949	-152.441	-151.847	-151.177	-150.443	-149.632
5.7	146.793	147.026	147.31	147.62	147.952	148.328	148.734	149.188	149.625	150.017	150.413	150.854	151.377	151.981	152.691	153.425	-162.227	-161.979	-161.68	-161.353	-161.002	-160.604	-160.175	-159.693	-159.225	-158.798	-158.362	-157.874	-157.294	-156.619	-155.823	-154.984
5.8	140.222	140.516	140.813	141.168	141.546	141.952	142.393	142.889	143.463	144.038	144.564	145.032	145.525	146.103	146.808	147.412	-168.177	-167.871	-167.56	-167.189	-166.793	-166.367	-165.904	-165.382	-164.777	-164.167	-163.602	-163.088	-162.542	-161.899	-161.113	-160.414
5.9	133.547	133.995	134.386	134.758	135.134	135.545	136.016	136.517	137.06	137.704	138.36	139.03	139.663	140.215	140.844	141.215	-174.248	-173.787	-173.383	-172.997	-172.606	-172.177	-171.686	-171.162	-170.591	-169.913	-169.219	-168.504	-167.818	-167.206	-166.505	-166.052
6	126.552	127.091	127.604	128.077	128.557	128.998	129.473	129.986	130.534	131.13	131.802	132.492	133.22	134.056	134.726	134.935	179.345	179.895	-179.579	-179.093	-178.598	-178.141	-177.648	-177.115	-176.541	-175.916	-175.21	-174.477	-173.701	-172.804	-172.069	-171.791
6.1	118.141	118.734	119.317	119.904	120.504	121.126	121.716	122.243	122.753	123.293	123.891	124.57	125.314	126.278	127.194	127.75	171.668	172.271	172.866	173.465	174.078	174.715	175.322	175.866	176.397	176.961	177.588	178.302	179.089	-179.894	-178.917	-178.296
6.2	109.665	110.253	110.873	111.458	112.076	112.736	113.43	114.178	114.886	115.487	116.049	116.671	117.381	118.44	119.283	119.79	163.913	164.51	165.139	165.733	166.362	167.035	167.744	168.51	169.237	169.858	170.444	171.095	171.841	172.944	173.835	174.394
6.3	100.629	101.356	101.992	102.628	103.25	103.906	104.596	105.319	106.131	106.955	107.764	108.458	109.152	110.125	110.83	111.24	155.583	156.317	156.96	157.603	158.234	158.9	159.602	160.338	161.167	162.009	162.84	163.559	164.28	165.286	166.024	166.471
6.4	90.6587	91.5088	92.3183	93.0892	93.8283	94.4987	95.1768	95.8744	96.5977	97.411	98.2728	99.1564	100.3	101.292	101.806	102.128	146.303	147.159	147.975	148.752	149.499	150.176	150.862	151.569	152.304	153.131	154.009	154.913	156.081	157.095	157.627	157.971
6.5	80.0396	80.9148	81.7394	82.5545	83.3953	84.2622	85.0698	85.7635	86.4428	87.1658	87.9679	88.8645	90.2262	91.5782	92.3286	92.6356	136.371	137.25	138.078	138.898	139.744	140.617	141.43	142.13	142.815	143.545	144.357	145.266	146.644	148.012	148.774	149.088
6.6	68.0813	68.9489	69.7656	70.5774	71.399	72.2477	73.1347	74.0911	75.0007	75.759	76.4614	77.2649	78.7079	80.0812	81.0141	81.7796	125.288	126.158	126.976	127.789	128.613	129.464	130.354	131.314	132.228	132.988	133.693	134.499	135.947	137.324	138.257	139.023
6.7	55.0618	56.0832	57.0095	57.8569	58.6412	59.4455	60.283	61.1548	62.096	63.0674	64.0313	64.8608	66.2677	67.5661	68.4674	69.2075	113.131	114.154	115.08	115.927	116.71	117.513	118.35	119.22	120.16	121.131	122.093	122.918	124.317	125.604	126.49	127.212
6.8	41.483	42.4973	43.4558	44.3644	45.2399	46.0357	46.7723	47.5319	48.3348	49.236	50.202	51.2733	53.0599	54.252	55.0774	55.7847	100.413	101.425	102.382	103.288	104.161	104.952	105.684	106.437	107.232	108.126	109.083	110.143	111.914	113.08	113.874	114.545
6.9	27.842	28.7794	29.6692	30.5348	31.4099	32.2801	33.0917	33.7907	34.4843	35.2297	36.0681	37.0626	39.0379	40.5841	41.3329	42.0391	87.6434	88.5764	89.4618	90.3222	91.1916	92.0551	92.8582	93.546	94.2265	94.9567	95.7777	96.7512	98.6997	100.21	100.91	101.561
7	14.5277	15.3907	16.2349	17.0486	17.8582	18.6667	19.5076	20.308	20.9733	21.6158	22.3279	23.2346	25.2092	26.8382	27.9449	28.6169	75.2343	76.0901	76.9268	77.7322	78.5323	79.33	80.1583	80.9439	81.5903	82.2101	82.8954	83.7703	85.7033	87.2807	88.325	88.9198
7.1	2.03446	2.90089	3.69421	4.46434	5.21047	5.96587	6.73574	7.5541	8.32371	8.95727	9.55367	10.3412	12.2493	13.8551	15.1392	16.1006	63.8407	64.6969	65.4791	66.2371	66.9694	67.709	68.4607	69.2585	70.0036	70.6068	71.1661	71.909	73.7587	75.294	76.4959	77.3593
7.2	-8.81034	-7.91695	-7.14273	-6.40545	-5.70231	-4.98621	-4.2602	-3.4949	-2.7058	-1.95021	-1.3281	-0.5827	1.23947	2.78044	4.03153	5.26092	54.1535	55.033	55.7918	56.5122	57.196	57.89	58.5907	59.3272	60.0832	60.7992	61.3721	62.0567	63.7985	65.2453	66.3869	67.4903
7.3	-17.2706	-16.3466	-15.5265	-14.7936	-14.1097	-13.429	-12.7362	-12.0306	-11.2507	-10.4477	-9.64204	-8.70278	-6.94791	-5.51963	-4.30223	-3.09576	46.9781	47.8834	48.6829	49.3928	50.05	50.7004	51.3584	52.0242	52.7587	53.5082	54.2494	55.1072	56.753	58.0555	59.1279	60.1667
7.4	-21.9384	-20.9924	-20.1301	-19.3276	-18.5748	-17.9059	-17.2385	-16.5478	-15.8125	-14.9883	-14.1288	-12.775	-10.8916	-9.57943	-8.38055	-7.18731	43.8454	44.7664	45.6014	46.3732	47.0907	47.7183	48.3385	48.9753	49.6483	50.3998	51.1724	52.4178	54.1576	55.3018	56.3082	57.279
7.5	-20.1412	-19.1962	-18.2889	-17.3824	-16.4973	-15.6438	-14.8934	-14.1764	-13.4295	-12.621	-11.7316	-10.133	-7.97227	-6.58206	-5.40941	-4.14249	47.526	48.4396	49.3126	50.1806	51.022	51.8249	52.5157	53.1633	53.8296	54.5439	55.3222	56.7804	58.7658	59.9451	60.8708	61.8556
7.6	-9.25105	-8.30178	-7.35746	-6.42664	-5.47196	-4.49653	-3.48036	-2.53595	-1.71897	-0.900544	0.00590524	1.80008	4.04847	5.83896	7.20044	8.40179	60.2566	61.1776	62.0913	62.9873	63.9028	64.8336	65.7999	66.6846	67.4272	68.1567	68.9593	70.6261	72.7174	74.3236	75.4579	76.3909
7.7	6.31574	7.39067	8.37099	9.3073	10.2639	11.2617	12.2896	13.4014	14.5324	15.6054	16.539	18.3917	20.634	22.46	24.2107	25.5378	76.2276	77.2933	78.261	79.1814	80.1196	81.0969	82.1019	83.1898	84.2926	85.3288	86.2112	88.0032	90.1734	91.9114	93.5636	94.7569
7.8	16.5932	17.7711	18.9327	20.0782	21.1448	22.156	23.1909	24.2594	25.4097	26.6214	27.9083	30.0372	32.1248	33.9155	35.6354	37.3996	86.0801	87.2619	88.4268	89.5751	90.6421	91.6515	92.6843	93.7511	94.9011	96.1135	97.4024	99.533	101.609	103.385	105.091	106.848
7.9	19.292	20.4918	21.7147	22.9654	24.2592	25.5919	26.825	27.9654	29.1487	30.4168	31.7913	34.2725	36.5776	38.1964	39.8686	41.5822	88.6705	89.8768	91.1067	92.365	93.6673	95.0096	96.251	97.3981	98.5896	99.8688	101.259	103.766	106.09	107.714	109.398	111.134
8	17.2398	18.5524	19.7716	20.9966	22.2886	23.6606	25.1285	26.6618	28.0889	29.3846	30.7883	33.447	36.1591	38.2842	39.97	42.0239	86.8585	88.1784	89.404	90.6354	91.9348	93.3155	94.7943	96.3405	97.7799	99.0866	100.504	103.189	105.929	108.076	109.778	111.868
8.1	10.6761	12.086	13.4989	14.9264	16.3095	17.676	19.1006	20.583	22.1756	23.8146	25.2936	27.6772	30.4608	33.0846	35.6115	37.5851	81.0789	82.4951	83.9146	85.3486	86.7376	88.1096	89.5407	91.0308	92.6334	94.284	95.7727	98.1679	100.968	103.613	106.166	108.161
8.2	2.53093	3.88653	5.27795	6.73122	8.28365	9.92929	11.5168	13.0294	14.5714	16.057	17.2762	19.6116	22.1052	24.5058	27.0665	29.6398	73.8102	75.1697	76.5654	78.0232	79.5807	81.232	82.8244	84.3407	85.8868	87.3759	88.5951	90.9344	93.427	95.8296	98.4001	100.989
8.3	-6.45039	-4.99438	-3.63336	-2.28115	-0.858113	0.686738	2.36784	4.16178	5.67488	6.66827	7.38678	9.20142	12.2607	14.3179	16.5196	18.7783	65.7459	67.2056	68.5694	69.9239	71.349	72.8963	74.5803	76.3778	77.8907	78.8766	79.5822	81.3868	84.4413	86.4818	88.6705	90.9196
8.4	-16.0491	-14.6499	-13.2355	-11.7943	-10.3179	-8.83821	-7.29876	-5.80272	-4.61312	-3.86618	-3.56621	-2.73998	0.434793	3.04334	5.22014	7.66066	57.08	58.4815	59.8983	61.3415	62.8196	64.2996	65.8388	67.3329	68.5161	69.2497	69.5279	70.3284	73.4868	76.0746	78.2237	80.6408
8.5	-25.7886	-24.5071	-23.2059	-21.8709	-20.4493	-18.9067	-17.3247	-16.0531	-15.2661	-14.8894	-14.7556	-14.762	-12.269	-9.43308	-7.33673	-5.21786	48.2819	49.5643	50.8664	52.2023	53.6246	55.1674	56.7483	58.014	58.7878	59.1448	59.2526	59.2114	61.6724	64.4776	66.5357	68.6113
8.6	-35.5113	-34.2639	-33.0311	-31.832	-30.6047	-29.2909	-27.9039	-26.6889	-26.0847	-25.9417	-25.9785	-26.0357	-24.2683	-21.7395	-19.3311	-17.4875	39.5027	40.7508	41.984	43.1829	44.4097	45.7222	47.1063	48.3135	48.9011	49.0199	48.9529	48.8592	50.5853	53.0713	55.4356	57.2245
8.7	-45.0957	-43.9316	-42.7469	-41.5835	-40.4726	-39.3215	-38.1712	-37.2666	-36.7173	-36.636	-36.7685	-36.8553	-35.4419	-32.871	-30.7834	-28.7537	30.8585	32.0224	33.2073	34.3704	35.4803	36.6295	37.7756	38.6695	39.2007	39.2562	39.0911	38.9658	40.3353	42.8571	44.891	46.8624
8.8	-54.4173	-53.3519	-52.2843	-51.2145	-50.1518	-49.1005	-48.0845	-47.282	-46.8094	-46.6654	-46.8893	-47.0017	-46.0562	-43.2968	-41.0355	-39.202	22.469	23.5337	24.6005	25.6697	26.7315	27.7809	28.7922	29.583	30.0362	30.1544	29.8969	29.7449	30.6453	33.3517	35.5558	37.3253
8.9	-63.439	-62.4561	-61.4988	-60.5474	-59.5623	-58.5939	-57.6391	-56.8576	-56.3502	-56.1106	-56.2587	-56.4521	-56.0505	-53.1503	-50.7628	-48.8142	14.3678	15.3494	16.3055	17.2557	18.2395	19.2061	20.1566	20.9266	21.4143	21.628	21.447	21.2137	21.5693	24.415	26.742	28.6243
9	-72.1399	-71.2255	-70.3375	-69.481	-68.6042	-67.7213	-66.8512	-66.0459	-65.4862	-65.1403	-65.0494	-65.2692	-65.1106	-62.4333	-59.886	-57.964	6.57283	7.48548	8.3718	9.22659	10.1018	10.9827	11.849	12.644	13.1844	13.5046	13.5638	13.3047	13.4177	16.0399	18.5242	20.3782
9.1	-80.5282	-79.6516	-78.8176	-78.033	-77.251	-76.4482	-75.6585	-74.8649	-74.2212	-73.7866	-73.498	-73.5437	-73.5097	-71.3683	-68.592	-66.5431	-0.926273	-0.0519504	0.779943	1.56256	2.34253	3.14315	3.92949	4.71416	5.33983	5.74943	6.00727	5.92387	5.91308	8.00006	10.7125	12.6923
9.2	-88.6299	-87.771	-86.9885	-86.2434	-85.524	-84.7939	-84.0561	-83.3023	-82.5926	-82.0624	-81.682	-81.489	-81.4267	-80.0262	-76.9472	-74.8319	-8.15702	-7.30088	-6.52089	-5.77807	-5.06101	-4.33334	-3.59874	-2.85234	-2.15898	-1.65268	-1.30193	-1.14484	-1.12564	0.222046	3.23703	5.28299
9.3	-96.4595	-95.5919	-94.8535	-94.146	-93.4854	-92.8209	-92.134	-91.4267	-90.6895	-90.0758	-89.5942	-89.2595	-89.0964	-88.2481	-84.9665	-82.9125	-15.1346	-14.2703	-13.5348	-12.83	-12.172	-11.5101	-10.8264	-10.1252	-9.40235	-8.81097	-8.35763	-8.05703	-7.93499	-7.13664	-3.9189	-1.93383
9.4	-104.01	-103.156	-102.442	-101.778	-101.148	-100.534	-99.9059	-99.2501	-98.5184	-97.8324	-97.26	-96.8098	-96.5853	-96.0783	-92.871	-90.6513	-21.8518	-21.0021	-20.2915	-19.6308	-19.0036	-18.3927	-17.7673	-17.1166	-16.3971	-15.7317	-15.1861	-14.7681	-14.5825	-14.1222	-10.978	-8.82618
9.5	-111.3	-110.466	-109.767	-109.147	-108.545	-107.976	-107.397	-106.79	-106.089	-105.343	-104.695	-104.164	-103.828	-103.499	-100.703	-98.1743	-28.328	-27.4981	-26.8035	-26.1861	-25.588	-25.022	-24.4459	-23.8432	-23.1527	-22.4252	-21.8027	-21.3019	-21.0023	-20.7175	-17.9823	-15.5201
9.6	-118.369	-117.57	-116.884	-116.289	-115.716	-115.177	-114.638	-114.081	-113.439	-112.661	-111.914	-111.321	-110.865	-110.526	-108.256	-105.549	-34.6	-33.8063	-33.124	-32.5334	-31.9628	-31.4274	-30.8918	-30.3391	-29.7055	-28.9437	-28.2205	-27.6561	-27.2348	-26.9367	-24.7246	-22.0827
9.7	-125.226	-124.466	-123.798	-123.226	-122.683	-122.167	-121.664	-121.151	-120.576	-119.805	-118.987	-118.291	-117.762	-117.348	-115.464	-112.689	-40.6766	-39.9216	-39.2584	-38.6904	-38.1506	-37.6383	-37.1381	-36.6299	-36.0616	-35.3047	-34.508	-33.8396	-33.3435	-32.9681	-31.137	-28.4267
9.8	-131.901	-131.175	-130.528	-129.977	-129.462	-128.969	-128.498	-128.024	-127.513	-126.794	-125.933	-125.138	-124.497	-124.038	-122.452	-119.567	-46.5847	-45.8639	-45.2213	-44.6743	-44.1636	-43.6739	-43.2065	-42.7365	-42.2315	-41.5238	-40.6828	-39.9136	-39.3033	-38.8807	-37.3438	-34.5213
9.9	-138.419	-137.726	-137.098	-136.565	-136.073	-135.598	-135.154	-134.711	-134.253	-133.617	-132.747	-131.893	-131.137	-130.561	-129.302	-126.356	-52.3474	-51.6593	-51.0362	-50.5067	-50.0192	-49.5477	-49.1074	-48.6685	-48.2156	-47.5892	-46.7366	-45.9061	-45.1788	-44.6376	-43.4232	-40.5377
10	-144.807	-144.141	-143.53	-143.013	-142.542	-142.083	-141.66	-141.239	-140.817	-140.269	-139.43	-138.533	-137.722	-136.996	-135.937	-133.099	-57.9875	-57.3266	-56.721	-56.2077	-55.7406	-55.2854	-54.8663	-54.4488	-54.0314	-53.4914	-52.6683	-51.7926	-51.0089	-50.3141	-49.296	-46.5161
10.1	-151.088	-150.446	-149.852	-149.347	-148.892	-148.446	-148.039	-147.633	-147.235	-146.762	-145.988	-145.073	-144.223	-143.419	-142.395	-139.71	-63.5265	-62.8896	-62.3009	-61.7992	-61.3481	-60.9057	-60.5028	-60.1005	-59.7073	-59.2404	-58.48	-57.5848	-56.7594	-55.9848	-54.9984	-52.3664
10.2	-157.281	-156.66	-156.083	-155.588	-155.146	-154.71	-154.315	-153.918	-153.535	-153.112	-152.421	-151.524	-150.633	-149.81	-148.815	-146.215	-68.9797	-68.3639	-67.7915	-67.3004	-66.8618	-66.4301	-66.0384	-65.6455	-65.2663	-64.8499	-64.1697	-63.2892	-62.4212	-61.6252	-60.6641	-58.1144
10.3	-163.402	-162.801	-162.24	-161.754	-161.322	-160.897	-160.509	-160.121	-159.746	-159.356	-158.751	-157.886	-156.982	-156.147	-155.225	-152.655	-74.3605	-73.7644	-73.2076	-72.7251	-72.2975	-71.8755	-71.4918	-71.107	-70.7357	-70.3516	-69.7546	-68.9059	-68.0215	-67.2114	-66.3198	-63.7959
10.4	-169.466	-168.883	-168.337	-167.858	-167.436	-167.021	-166.641	-166.261	-165.89	-165.522	-164.991	-164.164	-163.267	-162.424	-161.559	-158.987	-79.6797	-79.1019	-78.5598	-78.0851	-77.6663	-77.2551	-76.8785	-76.5015	-76.1351	-75.7716	-75.2473	-74.4342	-73.5549	-72.7342	-71.8957	-69.3663
10.5	-175.485	-174.92	-174.387	-173.915	-173.5	-173.096	-172.724	-172.353	-171.988	-171.637	-171.163	-170.372	-169.485	-168.648	-167.825	-165.303	-84.9491	-84.388	-83.859	-83.3908	-82.9792	-82.5787	-82.2096	-81.8422	-81.4811	-81.134	-80.6667	-79.8862	-79.0151	-78.1976	-77.3978	-74.9149
10.6	178.526	179.076	179.596	-179.938	-179.528	-179.135	-178.77	-178.411	-178.054	-177.717	-177.284	-176.533	-175.644	-174.813	-174.036	-171.686	-90.1669	-89.6217	-89.1053	-88.6427	-88.2366	-87.8462	-87.4845	-87.1291	-86.775	-86.4419	-86.014	-85.272	-84.3969	-83.5826	-82.8264	-80.5101
10.7	172.556	173.09	173.599	174.06	174.465	174.849	175.205	175.549	175.897	176.219	176.62	177.331	178.228	179.076	179.821	-178.063	-95.3343	-94.8039	-94.2989	-93.8409	-93.439	-93.0586	-92.7053	-92.3639	-92.0196	-91.7005	-91.304	-90.6005	-89.7149	-88.8822	-88.1542	-86.0662
10.8	166.591	167.11	167.607	168.064	168.466	168.84	169.188	169.52	169.85	170.157	170.529	171.194	172.104	172.981	173.736	175.605	-100.464	-99.9481	-99.4547	-99.0011	-98.6023	-98.2308	-97.8857	-97.5564	-97.2298	-96.9252	-96.5565	-95.898	-94.9976	-94.1337	-93.3922	-91.5469
10.9	160.625	161.129	161.613	162.064	162.462	162.829	163.168	163.488	163.796	164.091	164.437	165.056	165.959	166.872	167.65	169.28	-105.566	-105.066	-104.585	-104.137	-103.741	-103.377	-103.041	-102.723	-102.418	-102.125	-101.783	-101.168	-100.273	-99.3706	-98.6046	-96.9927
11	154.65	155.138	155.609	156.052	156.445	156.807	157.136	157.444	157.729	158.013	158.335	158.907	159.781	160.718	161.541	162.947	-110.654	-110.169	-109.701	-109.26	-108.87	-108.51	-108.184	-107.878	-107.595	-107.314	-106.994	-106.426	-105.558	-104.629	-103.815	-102.424
11.1	148.661	149.131	149.587	150.02	150.404	150.761	151.079	151.378	151.646	151.914	152.217	152.748	153.584	154.494	155.312	156.535	-115.739	-115.271	-114.817	-114.387	-114.006	-113.651	-113.335	-113.038	-112.771	-112.506	-112.204	-111.677	-110.845	-109.941	-109.13	-107.916
11.2	142.647	143.099	143.538	143.959	144.333	144.682	144.99	145.28	145.535	145.782	146.067	146.561	147.36	148.23	149.017	150.11	-120.838	-120.389	-119.951	-119.533	-119.161	-118.814	-118.508	-118.219	-117.967	-117.721	-117.437	-116.945	-116.149	-115.283	-114.501	-113.413
11.3	136.606	137.038	137.46	137.865	138.23	138.571	138.866	139.15	139.392	139.615	139.882	140.345	141.099	141.928	142.685	143.67	-125.964	-125.534	-125.113	-124.71	-124.347	-124.008	-123.715	-123.432	-123.192	-122.969	-122.704	-122.242	-121.49	-120.663	-119.907	-118.925
11.4	130.543	130.955	131.36	131.75	132.104	132.434	132.723	132.996	133.23	133.437	133.679	134.119	134.838	135.631	136.368	137.253	-131.119	-130.709	-130.305	-129.917	-129.564	-129.236	-128.949	-128.676	-128.443	-128.237	-127.996	-127.556	-126.838	-126.045	-125.307	-124.422
11.5	124.462	124.854	125.243	125.617	125.961	126.276	126.558	126.821	127.051	127.248	127.468	127.901	128.623	129.404	130.119	130.916	-136.308	-135.918	-135.53	-135.157	-134.815	-134.501	-134.22	-133.958	-133.729	-133.533	-133.313	-132.88	-132.157	-131.374	-130.656	-129.856
11.6	118.366	118.736	119.107	119.466	119.797	120.098	120.372	120.623	120.85	121.04	121.245	121.674	122.43	123.252	123.986	124.711	-141.537	-141.168	-140.798	-140.439	-140.109	-139.81	-139.536	-139.286	-139.059	-138.869	-138.665	-138.235	-137.478	-136.653	-135.913	-135.182
11.7	112.255	112.602	112.953	113.295	113.614	113.899	114.163	114.403	114.624	114.808	115.004	115.42	116.204	117.071	117.83	118.513	-146.81	-146.463	-146.112	-145.77	-145.452	-145.168	-144.905	-144.665	-144.445	-144.26	-144.064	-143.647	-142.861	-141.989	-141.223	-140.532
11.8	106.134	106.455	106.784	107.108	107.413	107.684	107.934	108.164	108.372	108.549	108.736	109.134	109.932	110.833	111.615	112.284	-152.125	-151.804	-151.476	-151.152	-150.847	-150.576	-150.327	-150.097	-149.889	-149.712	-149.524	-149.125	-148.323	-147.416	-146.627	-145.947
11.9	100.008	100.301	100.605	100.908	101.197	101.453	101.687	101.906	102.1	102.266	102.441	102.817	103.613	104.532	105.333	105.996	-157.481	-157.188	-156.884	-156.581	-156.292	-156.036	-155.801	-155.583	-155.389	-155.222	-155.047	-154.669	-153.868	-152.942	-152.131	-151.456
12	93.8782	94.1399	94.4172	94.6974	94.9684	95.2096	95.428	95.6329	95.8116	95.965	96.1235	96.4747	97.2596	98.1838	98.9968	99.6526	-162.862	-162.6	-162.322	-162.041	-161.77	-161.528	-161.31	-161.104	-160.925	-160.771	-160.612	-160.258	-159.468	-158.536	-157.711	-157.042
12.1	87.803	88.0291	88.2757	88.53	88.7793	89.0049	89.2071	89.3968	89.5595	89.6956	89.8332	90.154	90.9228	91.8398	92.6529	93.2933	-168.199	-167.972	-167.724	-167.469	-167.219	-166.993	-166.79	-166.6	-166.436	-166.299	-166.16	-165.837	-165.063	-164.136	-163.311	-162.654
12.2	81.6622	81.853	82.0695	82.2988	82.5273	82.7378	82.9255	83.1012	83.2497	83.3708	83.4899	83.7841	84.5367	85.4461	86.2547	86.8855	-173.581	-173.388	-173.17	-172.939	-172.71	-172.498	-172.31	-172.133	-171.984	-171.862	-171.741	-171.444	-170.685	-169.766	-168.943	-168.295
12.3	75.4903	75.6463	75.8334	76.0387	76.2474	76.443	76.6178	76.7808	76.9164	77.0251	77.1284	77.3964	78.1341	79.055	79.8686	80.5179	-178.988	-178.83	-178.641	-178.434	-178.224	-178.027	-177.851	-177.687	-177.551	-177.441	-177.336	-177.065	-176.321	-175.389	-174.56	-173.892
12.4	69.3236	69.4456	69.604	69.786	69.9758	70.157	70.32	70.4705	70.5938	70.691	70.78	71.0223	71.7444	72.6862	73.5227	74.2102	175.596	175.72	175.881	176.065	176.256	176.439	176.603	176.755	176.88	176.978	177.069	177.315	178.043	178.997	179.849	-179.444
12.5	63.1991	63.2879	63.4181	63.5772	63.7483	63.915	64.0666	64.2047	64.3155	64.4016	64.4769	64.694	65.3984	66.3661	67.2289	67.9488	170.191	170.282	170.415	170.577	170.75	170.918	171.071	171.211	171.323	171.411	171.489	171.709	172.42	173.399	174.278	175.018
12.6	57.199	57.2517	57.3513	57.4851	57.6355	57.786	57.9258	58.0506	58.1483	58.2191	58.2742	58.4478	59.1094	60.0962	61.0068	61.7403	164.959	165.014	165.117	165.253	165.406	165.558	165.7	165.826	165.926	165.999	166.056	166.233	166.901	167.9	168.827	169.582
12.7	51.11	51.1284	51.1985	51.3079	51.4383	51.5724	51.7011	51.8122	51.8963	51.9518	51.9863	52.114	52.7103	53.7209	54.6918	55.4572	159.669	159.69	159.763	159.875	160.008	160.145	160.276	160.389	160.475	160.532	160.569	160.701	161.303	162.326	163.314	164.101
12.8	44.9616	44.9473	44.9891	45.0748	45.1855	45.3031	45.4204	45.5182	45.5875	45.6283	45.6425	45.7261	46.2451	47.261	48.2933	49.122	154.335	154.324	154.369	154.458	154.571	154.692	154.811	154.911	154.983	155.026	155.042	155.13	155.655	156.682	157.732	158.582
12.9	38.7856	38.7401	38.7548	38.8178	38.9095	39.0114	39.1162	39.2012	39.2557	39.2824	39.2775	39.3215	39.7572	40.751	41.8326	42.7342	148.972	148.93	148.948	149.014	149.109	149.214	149.321	149.408	149.465	149.494	149.492	149.54	149.981	150.987	152.085	153.008
13	32.6176	32.5429	32.5322	32.5736	32.6471	32.7342	32.826	32.898	32.9379	32.9508	32.9282	32.9361	33.285	34.2384	35.3521	36.2949	143.597	143.525	143.518	143.563	143.64	143.73	143.824	143.899	143.941	143.957	143.937	143.948	144.303	145.267	146.398	147.362
13.1	26.7334	26.6313	26.5965	26.6173	26.6732	26.7465	26.8249	26.8828	26.9073	26.904	26.8604	26.8261	27.0526	27.908	29.0355	30.0073	138.558	138.459	138.428	138.452	138.511	138.588	138.669	138.73	138.757	138.756	138.716	138.685	138.917	139.783	140.926	141.919
13.2	20.7288	20.6016	20.5446	20.5463	20.5855	20.6457	20.7101	20.7529	20.7608	20.7392	20.6734	20.6004	20.7163	21.4267	22.5484	23.5711	133.44	133.316	133.263	133.268	133.311	133.375	133.442	133.488	133.499	133.48	133.417	133.348	133.469	134.189	135.326	136.369
13.3	14.6315	14.4817	14.4045	14.3883	14.4118	14.4593	14.5091	14.5359	14.526	14.4842	14.3956	14.2867	14.3023	14.8472	15.9085	16.9793	128.257	128.111	128.037	128.025	128.052	128.103	128.156	128.185	128.179	128.14	128.054	127.949	127.97	128.523	129.599	130.69
13.4	8.46959	8.29906	8.2033	8.17097	8.18038	8.21684	8.25224	8.26318	8.23566	8.17308	8.06253	7.92202	7.85143	8.21289	9.1748	10.2363	123.018	122.851	122.759	122.73	122.743	122.783	122.822	122.836	122.812	122.752	122.645	122.508	122.442	122.811	123.786	124.867
13.5	2.27331	2.08414	1.97197	1.92532	1.9222	1.94919	1.97008	1.96606	1.91967	1.83718	1.70552	1.53682	1.39381	1.57746	2.38115	3.41389	117.733	117.548	117.439	117.396	117.397	117.427	117.451	117.45	117.407	117.328	117.199	117.034	116.896	117.086	117.902	118.952
13.6	-3.40853	-3.60971	-3.73251	-3.78878	-3.80067	-3.78038	-3.77332	-3.79141	-3.85721	-3.96116	-4.11466	-4.31408	-4.5298	-4.53741	-3.97525	-3.03765	112.965	112.767	112.647	112.595	112.587	112.611	112.621	112.606	112.544	112.443	112.293	112.097	111.885	111.884	112.456	113.41
13.7	-9.23802	-9.44901	-9.58063	-9.64523	-9.66479	-9.65033	-9.65673	-9.68847	-9.77437	-9.90166	-10.0772	-10.306	-10.5826	-10.7488	-10.4476	-9.66758	108.097	107.89	107.762	107.701	107.685	107.703	107.7	107.672	107.589	107.465	107.293	107.067	106.795	106.634	106.944	107.738
13.8	-15.1904	-15.4075	-15.5452	-15.6164	-15.6422	-15.6329	-15.6517	-15.6948	-15.7991	-15.9499	-16.1457	-16.4023	-16.7321	-17.0224	-16.9736	-16.4083	103.143	102.929	102.794	102.727	102.705	102.718	102.702	102.663	102.562	102.414	102.221	101.968	101.642	101.356	101.413	101.99
13.9	-21.2397	-21.4596	-21.6004	-21.6754	-21.7042	-21.6997	-21.7291	-21.7803	-21.9005	-22.0755	-22.2911	-22.5815	-22.958	-23.3475	-23.5171	-23.1934	98.1075	97.8905	97.7531	97.6817	97.6567	97.6647	97.6387	97.5908	97.4738	97.3019	97.0894	96.8023	96.4292	96.0438	95.8803	96.214
14	-27.3625	-27.5835	-27.7254	-27.8029	-27.8345	-27.8348	-27.8702	-27.9315	-28.0638	-28.2572	-28.4968	-28.8203	-29.2402	-29.7097	-30.0612	-29.997	92.9932	92.775	92.6364	92.5624	92.5344	92.5376	92.5056	92.4476	92.3184	92.128	91.8914	91.5708	91.154	90.688	90.3413	90.4135
14.1	-32.6925	-32.9127	-33.0546	-33.1345	-33.1697	-33.1771	-33.2154	-33.2875	-33.4256	-33.6332	-33.9029	-34.2589	-34.7205	-35.258	-35.7613	-35.9617	88.5483	88.3308	88.1921	88.1157	88.084	88.0802	88.0453	87.9764	87.8414	87.6367	87.37	87.0166	86.5579	86.0235	85.5241	85.3299
14.2	-38.193	-38.4128	-38.5551	-38.6378	-38.6773	-38.6919	-38.731	-38.8113	-38.9522	-39.1728	-39.4792	-39.8635	-40.3621	-40.9552	-41.5679	-42.0022	83.984	83.7667	83.6274	83.5481	83.5122	83.5011	83.4654	83.3883	83.2504	83.0327	82.729	82.3472	81.8511	81.2607	80.6511	80.2214
14.3	-43.8733	-44.0964	-44.2422	-44.3299	-44.3756	-44.397	-44.4366	-44.524	-44.6672	-44.8998	-45.2391	-45.6479	-46.1771	-46.8143	-47.5058	-48.121	79.2788	79.0582	78.9152	78.8309	78.7886	78.7706	78.7344	78.6502	78.5099	78.28	77.9432	77.5367	77.0095	76.3744	75.6853	75.0733
14.4	-49.72	-49.9483	-50.0994	-50.1932	-50.2444	-50.2702	-50.3105	-50.4059	-50.5536	-50.8031	-51.1606	-51.6017	-52.1606	-52.8389	-53.5996	-54.3451	74.4297	74.2036	74.0552	73.9646	73.9167	73.8942	73.8572	73.7648	73.6199	73.373	73.0177	72.5785	72.0213	71.3446	70.5854	69.8418
14.5	-55.6927	-55.925	-56.0794	-56.1764	-56.2312	-56.2632	-56.3095	-56.4176	-56.5744	-56.8424	-57.2172	-57.6914	-58.2766	-58.9893	-59.8009	-60.6304	69.4555	69.2251	69.0733	68.9792	68.9276	68.8989	68.8557	68.7505	68.5963	68.3306	67.9578	67.4852	66.9013	66.1896	65.3787	64.55
14.6	-60.584	-60.8224	-60.9828	-61.0859	-61.1477	-61.1908	-61.2478	-61.3698	-61.5428	-61.8268	-62.2152	-62.7123	-63.3158	-64.053	-64.8789	-65.7483	65.3718	65.1352	64.9773	64.8771	64.8184	64.7785	64.7247	64.6056	64.4351	64.1533	63.7667	63.271	62.6684	61.9319	61.1062	60.237
14.7	-65.6537	-65.8978	-66.0644	-66.1736	-66.2431	-66.2962	-66.3692	-66.5054	-66.7015	-66.9979	-67.3982	-67.9077	-68.5265	-69.2654	-70.0849	-70.9695	61.1649	60.9224	60.7582	60.6519	60.5855	60.5356	60.4656	60.3322	60.1385	59.8442	59.4456	58.9372	58.3191	57.5804	56.7607	55.8756
14.8	-70.9077	-71.1588	-71.3331	-71.4496	-71.5285	-71.592	-71.6841	-71.836	-72.0573	-72.3644	-72.775	-73.2931	-73.9258	-74.6482	-75.4604	-76.3629	56.8214	56.5719	56.3997	56.286	56.2102	56.1498	56.0607	55.9114	55.6925	55.3872	54.978	54.4609	53.8286	53.106	52.2933	51.3897
14.9	-76.3413	-76.6009	-76.7849	-76.9104	-76.9994	-77.0754	-77.1875	-77.3558	-77.6025	-77.9204	-78.3407	-78.8628	-79.497	-80.2198	-81.0373	-81.9606	52.3343	52.0761	51.8942	51.7713	51.6852	51.6123	51.503	51.3373	51.0928	50.7766	50.3575	49.8361	49.202	48.4787	47.6603	46.7353
15	-81.9385	-82.2073	-82.4019	-82.5379	-82.6372	-82.7271	-82.8583	-83.0424	-83.3133	-83.6398	-84.0668	-84.5957	-85.2301	-85.9679	-86.8009	-87.7436	47.7028	47.4353	47.2427	47.1092	47.0126	46.9256	46.7972	46.6155	46.3466	46.0216	45.5957	45.0672	44.4327	43.6942	42.8598	41.9149
