Frequency (GHz)	Ang(Vcomp(M_PROBE.VP1,1)) (Deg) : FINAL Circuit 1.AP_HB (Pwr = 10 dBm)	Ang(Vcomp(M_PROBE.VP1,1)) (Deg) : FINAL Circuit 1.AP_HB (Pwr = 11 dBm)	Ang(Vcomp(M_PROBE.VP1,1)) (Deg) : FINAL Circuit 1.AP_HB (Pwr = 12 dBm)	Ang(Vcomp(M_PROBE.VP1,1)) (Deg) : FINAL Circuit 1.AP_HB (Pwr = 13 dBm)	Ang(Vcomp(M_PROBE.VP1,1)) (Deg) : FINAL Circuit 1.AP_HB (Pwr = 14 dBm)	Ang(Vcomp(M_PROBE.VP1,1)) (Deg) : FINAL Circuit 1.AP_HB (Pwr = 15 dBm)	Ang(Vcomp(M_PROBE.VP1,1)) (Deg) : FINAL Circuit 1.AP_HB (Pwr = 16 dBm)	Ang(Vcomp(M_PROBE.VP1,1)) (Deg) : FINAL Circuit 1.AP_HB (Pwr = 17 dBm)	Ang(Vcomp(M_PROBE.VP1,1)) (Deg) : FINAL Circuit 1.AP_HB (Pwr = 18 dBm)	Ang(Vcomp(M_PROBE.VP1,1)) (Deg) : FINAL Circuit 1.AP_HB (Pwr = 19 dBm)	Ang(Vcomp(M_PROBE.VP1,1)) (Deg) : FINAL Circuit 1.AP_HB (Pwr = 20 dBm)	Ang(Vcomp(M_PROBE.VP1,1)) (Deg) : FINAL Circuit 1.AP_HB (Pwr = 21 dBm)	Ang(Vcomp(M_PROBE.VP1,1)) (Deg) : FINAL Circuit 1.AP_HB (Pwr = 22 dBm)	Ang(Vcomp(M_PROBE.VP1,1)) (Deg) : FINAL Circuit 1.AP_HB (Pwr = 23 dBm)	Ang(Vcomp(M_PROBE.VP1,1)) (Deg) : FINAL Circuit 1.AP_HB (Pwr = 24 dBm)	Ang(Vcomp(M_PROBE.VP1,1)) (Deg) : FINAL Circuit 1.AP_HB (Pwr = 25 dBm)	Ang(Vcomp(M_PROBE.VP2,1)) (Deg) : FINAL Circuit 1.AP_HB (Pwr = 10 dBm)	Ang(Vcomp(M_PROBE.VP2,1)) (Deg) : FINAL Circuit 1.AP_HB (Pwr = 11 dBm)	Ang(Vcomp(M_PROBE.VP2,1)) (Deg) : FINAL Circuit 1.AP_HB (Pwr = 12 dBm)	Ang(Vcomp(M_PROBE.VP2,1)) (Deg) : FINAL Circuit 1.AP_HB (Pwr = 13 dBm)	Ang(Vcomp(M_PROBE.VP2,1)) (Deg) : FINAL Circuit 1.AP_HB (Pwr = 14 dBm)	Ang(Vcomp(M_PROBE.VP2,1)) (Deg) : FINAL Circuit 1.AP_HB (Pwr = 15 dBm)	Ang(Vcomp(M_PROBE.VP2,1)) (Deg) : FINAL Circuit 1.AP_HB (Pwr = 16 dBm)	Ang(Vcomp(M_PROBE.VP2,1)) (Deg) : FINAL Circuit 1.AP_HB (Pwr = 17 dBm)	Ang(Vcomp(M_PROBE.VP2,1)) (Deg) : FINAL Circuit 1.AP_HB (Pwr = 18 dBm)	Ang(Vcomp(M_PROBE.VP2,1)) (Deg) : FINAL Circuit 1.AP_HB (Pwr = 19 dBm)	Ang(Vcomp(M_PROBE.VP2,1)) (Deg) : FINAL Circuit 1.AP_HB (Pwr = 20 dBm)	Ang(Vcomp(M_PROBE.VP2,1)) (Deg) : FINAL Circuit 1.AP_HB (Pwr = 21 dBm)	Ang(Vcomp(M_PROBE.VP2,1)) (Deg) : FINAL Circuit 1.AP_HB (Pwr = 22 dBm)	Ang(Vcomp(M_PROBE.VP2,1)) (Deg) : FINAL Circuit 1.AP_HB (Pwr = 23 dBm)	Ang(Vcomp(M_PROBE.VP2,1)) (Deg) : FINAL Circuit 1.AP_HB (Pwr = 24 dBm)	Ang(Vcomp(M_PROBE.VP2,1)) (Deg) : FINAL Circuit 1.AP_HB (Pwr = 25 dBm)
5	155.049	154.935	154.85	154.775	154.763	154.756	154.755	154.768	154.844	154.919	155.084	155.306	155.58	155.914	156.344	156.849	-167.464	-167.554	-167.614	-167.664	-167.648	-167.625	-167.595	-167.547	-167.435	-167.319	-167.106	-166.827	-166.485	-166.073	-165.55	-164.932
5.1	149.221	149.178	149.126	149.07	149.108	149.163	149.227	149.313	149.464	149.652	149.854	150.092	150.377	150.704	151.096	151.587	-172.583	-172.604	-172.633	-172.664	-172.6	-172.516	-172.422	-172.302	-172.115	-171.885	-171.635	-171.341	-170.99	-170.587	-170.104	-169.503
5.2	143.577	143.587	143.565	143.546	143.598	143.659	143.762	143.923	144.153	144.446	144.772	145.079	145.379	145.714	146.127	146.634	-177.537	-177.507	-177.508	-177.503	-177.427	-177.34	-177.208	-177.014	-176.747	-176.411	-176.035	-175.672	-175.308	-174.898	-174.394	-173.775
5.3	138.034	138.112	138.164	138.169	138.214	138.325	138.484	138.704	138.986	139.321	139.739	140.173	140.576	140.954	141.371	141.879	177.587	177.684	177.757	177.783	177.851	177.987	178.173	178.426	178.744	179.122	179.59	-179.918	-179.45	-178.996	-178.489	-177.869
5.4	132.58	132.76	132.862	132.946	133.036	133.202	133.405	133.643	133.945	134.306	134.735	135.226	135.738	136.267	136.767	137.25	172.779	172.977	173.099	173.204	173.315	173.505	173.736	174.004	174.342	174.745	175.222	175.77	176.349	176.956	177.547	178.14
5.5	127.191	127.408	127.637	127.821	127.987	128.185	128.39	128.657	128.987	129.357	129.777	130.296	130.85	131.445	132.063	132.642	168.017	168.252	168.499	168.704	168.892	169.113	169.343	169.639	170.003	170.413	170.88	171.455	172.074	172.747	173.458	174.149
5.6	120.404	120.644	120.938	121.209	121.474	121.745	122.059	122.351	122.682	123.055	123.468	123.925	124.458	125.055	125.7	126.4	161.961	162.218	162.53	162.82	163.105	163.398	163.737	164.056	164.419	164.829	165.286	165.794	166.388	167.059	167.792	168.603
5.7	113.707	113.94	114.224	114.534	114.865	115.242	115.648	116.102	116.538	116.93	117.326	117.766	118.289	118.894	119.603	120.337	155.979	156.227	156.526	156.853	157.204	157.602	158.032	158.513	158.981	159.408	159.844	160.332	160.912	161.587	162.383	163.223
5.8	107.03	107.324	107.621	107.976	108.354	108.76	109.202	109.698	110.272	110.846	111.372	111.841	112.334	112.912	113.617	114.221	149.999	150.305	150.617	150.988	151.383	151.809	152.273	152.795	153.401	154.01	154.576	155.09	155.637	156.28	157.066	157.766
5.9	100.249	100.697	101.088	101.46	101.836	102.248	102.719	103.22	103.763	104.408	105.064	105.734	106.368	106.92	107.549	107.92	143.896	144.358	144.761	145.148	145.539	145.969	146.46	146.985	147.556	148.235	148.929	149.645	150.331	150.944	151.646	152.099
6	93.1466	93.685	94.1984	94.6719	95.1525	95.5937	96.0694	96.5821	97.1312	97.7282	98.3997	99.0913	99.8191	100.657	101.327	101.536	137.456	138.007	138.533	139.02	139.515	139.972	140.466	141	141.574	142.2	142.907	143.64	144.417	145.316	146.052	146.33
6.1	84.6472	85.2398	85.8239	86.411	87.0113	87.6344	88.2249	88.752	89.2633	89.8042	90.403	91.0826	91.828	92.7936	93.7101	94.2665	129.768	130.371	130.967	131.566	132.179	132.818	133.425	133.97	134.502	135.067	135.695	136.41	137.199	138.218	139.195	139.817
6.2	76.0806	76.6699	77.2904	77.8752	78.494	79.1552	79.8502	80.5995	81.3079	81.9102	82.4736	83.0972	83.8084	84.8683	85.7114	86.2188	121.999	122.597	123.226	123.821	124.451	125.125	125.835	126.602	127.33	127.953	128.54	129.192	129.939	131.044	131.936	132.495
6.3	66.9539	67.6814	68.3182	68.9547	69.5775	70.2351	70.9263	71.6502	72.4639	73.2885	74.0993	74.7954	75.4917	76.4654	77.1699	77.5809	113.653	114.388	115.032	115.676	116.307	116.975	117.677	118.415	119.245	120.089	120.922	121.643	122.367	123.373	124.112	124.56
6.4	56.8906	57.741	58.5511	59.3233	60.064	60.7358	61.415	62.1141	62.8388	63.6537	64.5173	65.4028	66.5481	67.5419	68.0553	68.3787	104.355	105.211	106.028	106.806	107.554	108.233	108.92	109.629	110.365	111.194	112.074	112.98	114.15	115.166	115.699	116.043
6.5	46.1759	47.0514	47.8761	48.6925	49.5347	50.4034	51.2137	51.9099	52.591	53.3158	54.1197	55.0182	56.3809	57.7328	58.4841	58.7915	94.4002	95.2797	96.1084	96.9293	97.7767	98.6514	99.4679	100.17	100.857	101.589	102.403	103.314	104.693	106.061	106.825	107.139
6.6	34.1236	34.9922	35.8094	36.622	37.4448	38.2949	39.1831	40.1415	41.0536	41.8147	42.5192	43.3249	44.7693	46.143	47.075	47.8392	83.2998	84.17	84.9889	85.8032	86.6281	87.4806	88.3718	89.3343	90.2503	91.0139	91.7205	92.5294	93.9789	95.3561	96.2888	97.0534
6.7	21.0049	22.0173	22.948	23.802	24.5867	25.3916	26.2297	27.1022	28.0441	29.0171	29.9828	30.8149	32.2233	33.5233	34.4248	35.1635	71.1191	72.1321	73.063	73.9168	74.7005	75.5042	76.3411	77.2123	78.1534	79.1254	80.0895	80.9169	82.3178	83.607	84.4935	85.2145
6.8	7.3292	8.34434	9.30266	10.2122	11.0892	11.8866	12.6235	13.383	14.186	15.087	16.0542	17.1263	18.9189	20.1126	20.9377	21.6449	58.3782	59.3918	60.3483	61.2556	62.1297	62.923	63.6543	64.4073	65.203	66.0963	67.0547	68.116	69.8934	71.0613	71.8549	72.5258
6.9	-6.40106	-5.4679	-4.57488	-3.70893	-2.83361	-1.96289	-1.14906	-0.44893	0.244218	0.988931	1.8267	2.82027	4.79568	6.34754	7.09697	7.80284	45.5939	46.5228	47.4113	48.2722	49.1418	50.0059	50.8112	51.5004	52.1804	52.91	53.7304	54.7032	56.6519	58.1681	58.869	59.5196
7	-19.7995	-18.9366	-18.0928	-17.2793	-16.4698	-15.6619	-14.8211	-14.0194	-13.3533	-12.7116	-12.0007	-11.0963	-9.12332	-7.49307	-6.38376	-5.712	33.1744	34.03	34.8664	35.6717	36.4718	37.2689	38.0973	38.884	39.5314	40.1505	40.8347	41.7073	43.6389	45.2179	46.2649	46.8596
7.1	-32.387	-31.5215	-30.7272	-29.9574	-29.2118	-28.457	-27.6881	-26.8703	-26.1007	-25.4673	-24.8719	-24.0869	-22.1808	-20.5747	-19.2908	-18.3286	21.7643	22.6196	23.4028	24.1605	24.8923	25.6314	26.3822	27.1795	27.9247	28.5278	29.0861	29.8266	31.6744	33.2101	34.4121	35.2765
7.2	-43.3189	-42.429	-41.6522	-40.9145	-40.212	-39.4966	-38.7713	-38.0069	-37.2186	-36.4636	-35.8421	-35.0989	-33.2782	-31.7373	-30.4864	-29.2573	12.0675	12.9436	13.7049	14.4258	15.109	15.8024	16.5024	17.238	17.9933	18.7087	19.2812	19.9637	21.7041	23.151	24.2926	25.3958
7.3	-51.8626	-50.9393	-50.119	-49.3867	-48.7029	-48.0227	-47.3305	-46.6255	-45.8466	-45.0442	-44.2392	-43.3011	-41.5468	-40.1186	-38.9015	-37.6951	4.88591	5.79055	6.59026	7.2996	7.95682	8.60667	9.26407	9.92929	10.663	11.4119	12.1525	13.0092	14.6546	15.9571	17.0295	18.0683
7.4	-56.6123	-55.6665	-54.8044	-54.0021	-53.2496	-52.5811	-51.9142	-51.2239	-50.4891	-49.6654	-48.8063	-47.4535	-45.5694	-44.2572	-43.0583	-41.8652	1.74794	2.66864	3.50358	4.27519	4.99243	5.6197	6.23949	6.87584	7.54848	8.29951	9.07181	10.3163	12.057	13.2015	14.208	15.179
7.5	-54.8971	-53.9529	-53.047	-52.1448	-51.2538	-50.4003	-49.6499	-48.9332	-48.1866	-47.3784	-46.4892	-44.891	-42.7298	-41.3386	-40.1658	-38.8988	5.42138	6.33422	7.20593	8.06998	8.917	9.72003	10.4108	11.0582	11.7244	12.4386	13.2168	14.6748	16.6611	17.8416	18.7678	19.7531
7.6	-44.1338	-43.186	-42.2406	-41.3098	-40.356	-39.3802	-38.3638	-37.4192	-36.6031	-35.7837	-34.8774	-33.0834	-30.8345	-29.0434	-27.6807	-26.4793	18.1019	19.0216	19.9365	20.8326	21.7474	22.6787	23.6453	24.5305	25.2726	26.0031	26.8059	28.4729	30.5653	32.1727	33.309	34.2427
7.7	-28.6908	-27.6264	-26.6369	-25.6999	-24.7436	-23.7454	-22.7177	-21.606	-20.475	-19.4014	-18.4676	-16.6151	-14.3727	-12.5463	-10.7955	-9.46713	34.0236	35.079	36.056	36.9771	37.9152	38.8931	39.8981	40.9861	42.0893	43.1264	44.0095	45.8018	47.9729	49.7119	51.3652	52.5609
7.8	-18.5371	-17.3658	-16.1973	-15.0517	-13.9876	-12.9735	-11.9394	-10.8703	-9.72032	-8.50879	-7.22203	-5.092	-3.0045	-1.21381	0.50594	2.27014	43.8287	45.0039	46.1759	47.3245	48.3891	49.4016	50.4339	51.5015	52.6515	53.8641	55.1532	57.2856	59.3624	61.1389	62.8458	64.604
7.9	-15.9656	-14.7659	-13.5518	-12.2922	-10.9982	-9.66563	-8.43085	-7.2975	-6.10747	-4.83943	-3.46469	-0.983099	1.32374	2.94219	4.61387	6.3269	46.3706	47.5769	48.7981	50.0654	51.3681	52.7104	53.9536	55.0939	56.2925	57.572	58.9622	61.4707	63.7966	65.4208	67.1056	68.8418
8	-18.1495	-16.8358	-15.616	-14.3909	-13.0991	-11.7277	-10.2601	-8.72568	-7.29671	-6.00091	-4.5975	-1.93886	0.774425	2.90203	4.58778	6.63979	44.5064	45.8277	47.0539	48.2855	49.5848	50.9651	52.4437	53.9912	55.4327	56.7397	58.1575	60.8424	63.5838	65.7345	67.4372	69.5259
8.1	-24.8811	-23.4709	-22.0574	-20.6328	-19.2441	-17.8773	-16.4523	-14.9699	-13.3775	-11.7391	-10.2584	-7.87592	-5.09163	-2.46588	0.0572594	2.03569	38.6404	40.057	41.4771	42.9083	44.303	45.6754	47.107	48.5972	50.1999	51.85	53.3408	55.7351	58.5362	61.1839	63.7338	65.7334
8.2	-33.2057	-31.8498	-30.4582	-29.0048	-27.4524	-25.8056	-24.2156	-22.7029	-21.1611	-19.6765	-18.4585	-16.125	-13.6326	-11.2312	-8.67154	-6.09669	31.2734	32.6334	34.0293	35.4872	37.0448	38.6974	40.2923	41.809	43.3549	44.8432	46.0614	48.3991	50.8908	53.2946	55.8645	58.4553
8.3	-42.3798	-40.9238	-39.5628	-38.2085	-36.7859	-35.2402	-33.5605	-31.7664	-30.2532	-29.2651	-28.5533	-26.7486	-23.6932	-21.636	-19.4348	-17.1741	23.0973	24.557	25.9209	27.2775	28.7023	30.2504	31.9332	33.7309	35.244	36.2247	36.9237	38.7185	41.7692	43.8101	45.9986	48.2501
8.4	-52.1808	-50.7824	-49.3687	-47.9272	-46.4513	-44.9719	-43.4322	-41.9373	-40.7555	-40.015	-39.7218	-38.9091	-35.7372	-33.1316	-30.9587	-28.5128	14.3095	15.7102	17.1263	18.5699	20.0475	21.5273	23.0668	24.5598	25.7353	26.4625	26.734	27.521	30.6766	33.2617	35.4071	37.8299
8.5	-62.1267	-60.8459	-59.546	-58.2126	-56.7924	-55.2512	-53.6696	-52.4006	-51.6175	-51.2443	-51.1147	-51.124	-48.6397	-45.7997	-43.7009	-41.5919	5.38461	6.66642	7.96725	9.30155	10.7224	12.2639	13.8445	15.1075	15.8776	16.231	16.3348	16.2909	18.7432	21.5528	23.6135	25.6795
8.6	-72.0567	-70.812	-69.5785	-68.3806	-67.1549	-65.8431	-64.459	-63.2474	-62.6424	-62.5004	-62.5387	-62.5964	-60.832	-58.305	-55.8972	-54.0508	-3.52267	-2.27715	-1.04327	0.154512	1.37972	2.69026	4.07151	5.27531	5.86375	5.9816	5.9132	5.81919	7.54243	10.0269	12.3907	14.1826
8.7	-81.849	-80.6878	-79.5052	-78.341	-77.2311	-76.0816	-74.9332	-74.0298	-73.4988	-73.3983	-73.5303	-73.6158	-72.2131	-69.6402	-67.5506	-65.5342	-12.2963	-11.1352	-9.95246	-8.7885	-7.67966	-6.53197	-5.3878	-4.49499	-3.98203	-3.90722	-4.07183	-4.19564	-2.83676	-0.312783	1.72336	3.68154
8.8	-91.3779	-90.3169	-89.249	-88.1788	-87.1173	-86.0678	-85.0532	-84.251	-83.7775	-83.6306	-83.853	-83.9656	-83.031	-80.2736	-78.0093	-76.1764	-20.8158	-19.7556	-18.6883	-17.6188	-16.5582	-15.5106	-14.5006	-13.71	-13.2559	-13.1347	-13.3907	-13.5427	-12.6531	-9.94862	-7.74135	-5.97227
8.9	-100.603	-99.6911	-98.6646	-97.716	-96.7316	-95.7664	-94.8114	-94.0292	-93.52	-93.278	-93.4253	-93.6174	-93.2229	-90.3327	-87.9422	-85.997	-29.0442	-28.1337	-27.1087	-26.1613	-25.1781	-24.2147	-23.264	-22.4932	-22.0037	-21.7876	-21.9677	-22.1996	-21.851	-19.0151	-16.685	-14.8059
9	-109.504	-108.595	-107.704	-106.848	-105.972	-105.091	-104.222	-103.416	-102.854	-102.505	-102.415	-102.635	-102.478	-99.8147	-97.2657	-95.3463	-36.9654	-36.058	-35.1689	-34.3142	-33.4405	-32.5609	-31.6957	-30.9007	-30.3577	-30.034	-29.9755	-30.2351	-30.1233	-27.5152	-25.0291	-23.1776
9.1	-118.086	-117.21	-116.378	-115.593	-114.812	-114.011	-113.222	-112.428	-111.783	-111.343	-111.053	-111.102	-111.068	-108.938	-106.165	-104.116	-44.5868	-43.7132	-42.8831	-42.0997	-41.321	-40.5218	-39.7363	-38.9514	-38.3239	-37.909	-37.65	-37.7362	-37.7474	-35.6717	-32.9623	-30.9823
9.2	-126.384	-125.541	-124.754	-123.99	-123.272	-122.543	-121.806	-121.052	-120.34	-119.805	-119.421	-119.232	-119.169	-117.773	-114.702	-112.585	-51.9434	-51.1033	-50.3189	-49.5574	-48.8416	-48.1152	-47.3815	-46.6351	-45.9389	-45.4278	-45.0739	-44.9205	-44.9001	-43.5574	-40.55	-38.5028
9.3	-134.383	-133.543	-132.778	-132.073	-131.411	-130.752	-130.062	-129.356	-128.616	-127.999	-127.51	-127.174	-127.008	-126.157	-122.877	-120.824	-59.0242	-58.1866	-57.4251	-56.7223	-56.0637	-55.4075	-54.7206	-54.0204	-53.2949	-52.6994	-52.2393	-51.9369	-51.812	-51.011	-47.7953	-45.8107
9.4	-142.102	-141.249	-140.542	-139.879	-139.243	-138.63	-138.003	-137.348	-136.618	-135.927	-135.348	-134.888	-134.656	-134.144	-130.935	-128.71	-65.8458	-64.9967	-64.2934	-63.6326	-62.9995	-62.3896	-61.766	-61.1165	-60.3977	-59.728	-59.1756	-58.7475	-58.5544	-58.0896	-54.943	-52.7859
9.5	-149.551	-148.719	-148.019	-147.4	-146.799	-146.23	-145.656	-145.046	-144.349	-143.601	-142.947	-142.405	-142.053	-141.715	-138.921	-136.382	-72.4198	-71.5915	-70.8958	-70.2799	-69.6814	-69.1159	-68.5454	-67.9401	-67.2525	-66.5232	-65.8946	-65.3825	-65.0681	-64.7734	-62.04	-59.5681
9.6	-156.77	-155.972	-155.286	-154.692	-154.119	-153.579	-153.042	-152.486	-151.847	-151.069	-150.318	-149.717	-149.248	-148.896	-146.626	-143.914	-78.7839	-77.99	-77.3083	-76.7177	-76.1483	-75.6119	-75.0779	-74.5258	-73.8956	-73.134	-72.4067	-71.8338	-71.3996	-71.0888	-68.8759	-66.2295
9.7	-163.772	-163.011	-162.341	-161.768	-161.225	-160.709	-160.206	-159.694	-159.122	-158.353	-157.533	-156.831	-156.292	-155.868	-153.982	-151.205	-84.9502	-84.1934	-83.5281	-82.959	-82.4199	-81.9068	-81.4072	-80.9	-80.3344	-79.5796	-78.7809	-78.1064	-77.5997	-77.2144	-75.3819	-72.6688
9.8	-170.573	-169.846	-169.214	-168.648	-168.156	-167.641	-167.17	-166.697	-166.188	-165.471	-164.61	-163.812	-163.164	-162.696	-161.109	-158.225	-90.9314	-90.2095	-89.5821	-89.0204	-88.5321	-88.0207	-87.5533	-87.0842	-86.5807	-85.8754	-85.034	-84.262	-83.6445	-83.2129	-81.6752	-78.8538
9.9	-177.211	-176.52	-175.891	-175.357	-174.866	-174.402	-173.947	-173.505	-173.048	-172.416	-171.545	-170.689	-169.93	-169.348	-168.084	-165.142	-96.7646	-96.0783	-95.4542	-94.9247	-94.4374	-93.9773	-93.5258	-93.0876	-92.6359	-92.0133	-91.1598	-90.3279	-89.5973	-89.0491	-87.8308	-84.9487
10	176.288	176.951	177.558	178.081	178.552	179.008	179.433	179.855	-179.724	-179.178	-178.341	-177.443	-176.631	-175.901	-174.838	-172.002	-102.471	-101.814	-101.212	-100.692	-100.225	-99.7727	-99.3517	-98.934	-98.5174	-97.979	-97.1575	-96.2815	-95.4962	-94.7982	-93.7755	-90.9973
10.1	169.9	170.542	171.135	171.641	172.095	172.541	172.948	173.354	173.751	174.224	174.995	175.91	176.76	177.566	178.593	-178.722	-108.073	-107.436	-106.848	-106.346	-105.896	-105.453	-105.05	-104.648	-104.255	-103.789	-103.031	-102.136	-101.31	-100.534	-99.5442	-96.9131
10.2	163.605	164.226	164.803	165.298	165.74	166.175	166.571	166.968	167.351	167.772	168.462	169.358	170.249	171.072	172.069	174.669	-113.585	-112.969	-112.397	-111.906	-111.468	-111.036	-110.645	-110.251	-109.873	-109.457	-108.778	-107.899	-107.031	-106.235	-105.272	-102.722
10.3	157.354	157.986	158.548	159.034	159.465	159.891	160.278	160.667	161.042	161.431	162.035	162.898	163.802	164.636	165.559	168.13	-119.055	-118.428	-117.87	-117.388	-116.961	-116.538	-116.155	-115.77	-115.399	-115.015	-114.42	-113.572	-112.689	-111.879	-110.987	-108.462
10.4	151.225	151.808	152.354	152.833	153.255	153.67	154.05	154.431	154.801	155.169	155.699	156.524	157.42	158.261	159.126	161.699	-124.4	-123.822	-123.28	-122.805	-122.387	-121.975	-121.599	-121.221	-120.855	-120.492	-119.968	-119.157	-118.279	-117.46	-116.622	-114.092
10.5	145.107	145.674	146.201	146.675	147.086	147.498	147.87	148.241	148.606	148.957	149.43	150.219	151.104	151.939	152.761	155.283	-129.729	-129.167	-128.643	-128.173	-127.765	-127.358	-126.988	-126.621	-126.259	-125.912	-125.446	-124.667	-123.798	-122.983	-122.185	-119.701
10.6	139.018	139.531	140.088	140.55	140.955	141.356	141.721	142.08	142.438	142.775	143.207	143.957	144.842	145.67	146.444	148.794	-135.009	-134.5	-133.947	-133.489	-133.087	-132.689	-132.327	-131.971	-131.617	-131.283	-130.856	-130.116	-129.244	-128.433	-127.68	-125.363
10.7	132.936	133.429	133.979	134.44	134.845	135.228	135.584	135.928	136.277	136.6	137	137.71	138.603	139.445	140.186	142.301	-140.248	-139.759	-139.213	-138.755	-138.353	-137.973	-137.619	-137.279	-136.933	-136.613	-136.217	-135.516	-134.634	-133.806	-133.083	-130.996
10.8	126.823	127.326	127.867	128.323	128.724	129.098	129.447	129.779	130.109	130.417	130.789	131.452	132.358	133.227	133.976	135.841	-145.485	-144.986	-144.449	-143.995	-143.597	-143.226	-142.88	-142.551	-142.224	-141.919	-141.55	-140.893	-139.997	-139.14	-138.405	-136.564
10.9	120.753	121.214	121.74	122.191	122.588	122.955	123.293	123.614	123.922	124.218	124.564	125.183	126.082	126.985	127.753	129.378	-150.65	-150.192	-149.669	-149.221	-148.826	-148.463	-148.127	-147.808	-147.503	-147.21	-146.867	-146.253	-145.362	-144.468	-143.712	-142.106
11	114.634	115.085	115.592	116.035	116.427	116.789	117.118	117.426	117.711	117.995	118.317	118.889	119.761	120.691	121.499	122.896	-155.838	-155.389	-154.886	-154.445	-154.056	-153.696	-153.37	-153.064	-152.781	-152.5	-152.18	-151.611	-150.746	-149.824	-149.025	-147.642
11.1	108.483	108.955	109.415	109.835	110.192	110.588	110.892	111.204	111.473	111.74	112.043	112.573	113.409	114.316	115.127	116.341	-161.039	-160.57	-160.113	-159.695	-159.34	-158.947	-158.645	-158.335	-158.068	-157.803	-157.502	-156.974	-156.143	-155.242	-154.438	-153.233
11.2	102.286	102.762	103.203	103.586	103.997	104.347	104.632	104.944	105.198	105.444	105.729	106.221	107.019	107.89	108.677	109.77	-166.277	-165.803	-165.364	-164.983	-164.574	-164.226	-163.943	-163.633	-163.381	-163.135	-162.853	-162.362	-161.568	-160.7	-159.917	-158.83
11.3	96.1013	96.4983	96.9545	97.3262	97.7239	98.0346	98.3603	98.6437	98.885	99.1079	99.3731	99.8338	100.587	101.417	102.178	103.167	-171.498	-171.103	-170.649	-170.279	-169.883	-169.575	-169.251	-168.969	-168.729	-168.507	-168.243	-167.783	-167.032	-166.204	-165.444	-164.458
11.4	89.8606	90.2413	90.6774	91.0667	91.421	91.7502	92.0372	92.3126	92.5462	92.7526	92.9936	93.4311	94.1486	94.9432	95.6831	96.5736	-176.783	-176.404	-175.969	-175.582	-175.229	-174.901	-174.616	-174.342	-174.109	-173.904	-173.663	-173.226	-172.509	-171.714	-170.974	-170.083
11.5	83.5966	83.9595	84.3766	84.724	85.0943	85.4099	85.6916	85.9547	86.1843	86.3802	86.5992	87.0301	87.7506	88.5335	89.2513	90.0536	177.893	178.255	178.671	179.017	179.386	179.7	179.981	-179.757	-179.528	-179.333	-179.114	-178.683	-177.962	-177.177	-176.456	-175.651
11.6	77.3124	77.6588	78.0535	78.3997	78.7439	79.023	79.3183	79.5693	79.7963	79.9862	80.1894	80.6163	81.3701	82.1936	82.9308	83.6606	172.527	172.872	173.266	173.611	173.955	174.233	174.527	174.777	175.004	175.193	175.397	175.824	176.58	177.407	178.148	178.884
11.7	71.0116	71.3586	71.7098	72.0289	72.3712	72.6355	72.9205	73.1604	73.3809	73.5654	73.7602	74.1729	74.9539	75.8228	76.5839	77.2702	167.114	167.461	167.812	168.13	168.472	168.735	169.02	169.259	169.479	169.664	169.859	170.273	171.056	171.93	172.697	173.392
11.8	64.7005	65.0166	65.3508	65.6598	65.9801	66.2512	66.5012	66.7313	66.9399	67.1171	67.3027	67.6969	68.491	69.3938	70.1766	70.8483	161.658	161.974	162.309	162.617	162.937	163.208	163.458	163.687	163.896	164.073	164.26	164.655	165.453	166.362	167.153	167.835
11.9	58.3844	58.6647	58.982	59.273	59.5746	59.8309	60.0656	60.2833	60.4783	60.6453	60.8186	61.1905	61.9826	62.9011	63.7037	64.3687	156.162	156.442	156.76	157.051	157.353	157.609	157.844	158.062	158.257	158.424	158.598	158.972	159.769	160.694	161.507	162.184
12	52.0632	52.3178	52.6039	52.8762	53.1562	53.3975	53.6165	53.8218	54.0008	54.1546	54.3126	54.6593	55.439	56.3619	57.1764	57.8339	150.639	150.895	151.182	151.454	151.735	151.976	152.196	152.401	152.581	152.735	152.894	153.243	154.028	154.959	155.785	156.456
12.1	45.7966	46.0239	46.2678	46.5247	46.7768	47.0029	47.2053	47.3957	47.5588	47.6955	47.8329	48.1493	48.9123	49.8275	50.6417	51.2839	145.158	145.387	145.632	145.89	146.143	146.37	146.572	146.763	146.927	147.065	147.204	147.523	148.291	149.216	150.042	150.701
12.2	39.4643	39.6566	39.8744	40.1059	40.3363	40.5454	40.7336	40.9098	41.0586	41.1807	41.2999	41.59	42.3361	43.2431	44.0522	44.6849	139.633	139.827	140.047	140.279	140.51	140.721	140.91	141.087	141.237	141.36	141.481	141.774	142.526	143.443	144.266	144.916
12.3	33.1008	33.2589	33.4474	33.6598	33.8637	34.06	34.2352	34.3993	34.5354	34.6465	34.7486	35.0129	35.7424	36.661	37.4744	38.1255	134.081	134.241	134.432	134.645	134.851	135.049	135.225	135.39	135.527	135.64	135.744	136.011	136.747	137.676	138.504	139.174
12.4	26.7424	26.8693	27.0267	27.2133	27.4039	27.5837	27.7473	27.8984	28.0218	28.1212	28.2112	28.4495	29.1635	30.1012	30.9373	31.6259	128.52	128.649	128.809	128.998	129.19	129.372	129.536	129.689	129.814	129.914	130.006	130.248	130.968	131.917	132.769	133.477
12.5	20.4265	20.5175	20.6615	20.8105	20.9945	21.1507	21.3031	21.443	21.5528	21.6398	21.7163	21.931	22.6284	23.5912	24.453	25.174	122.971	123.065	123.211	123.363	123.548	123.707	123.86	124.002	124.113	124.202	124.281	124.499	125.202	126.177	127.055	127.796
12.6	14.2489	14.3038	14.4199	14.5409	14.7059	14.8497	14.9957	15.1097	15.2077	15.2799	15.3361	15.5087	16.1644	17.1471	18.0561	18.7907	117.601	117.659	117.778	117.902	118.069	118.215	118.362	118.478	118.578	118.652	118.711	118.887	119.549	120.544	121.469	122.225
12.7	7.98154	8.02207	8.07464	8.19477	8.32395	8.4523	8.58902	8.69308	8.78489	8.83414	8.87002	8.99856	9.5903	10.5973	11.5658	12.3313	112.173	112.217	112.273	112.395	112.527	112.658	112.797	112.903	112.997	113.048	113.087	113.219	113.817	114.836	115.821	116.608
12.8	1.65433	1.66177	1.68971	1.77812	1.88724	2.01429	2.1229	2.22089	2.29078	2.33274	2.34815	2.43189	2.94903	3.96275	4.99155	5.81864	106.701	106.712	106.743	106.835	106.947	107.076	107.187	107.287	107.36	107.404	107.422	107.509	108.033	109.058	110.104	110.953
12.9	-4.70144	-4.74512	-4.70766	-4.66327	-4.5563	-4.46751	-4.35386	-4.27581	-4.20942	-4.19473	-4.19745	-4.14898	-3.71543	-2.72255	-1.64442	-0.74556	101.199	101.158	101.199	101.247	101.357	101.449	101.565	101.645	101.714	101.731	101.731	101.783	102.223	103.227	104.322	105.242
13	-11.0415	-11.0847	-11.1322	-11.0566	-11.0147	-10.8971	-10.8347	-10.7472	-10.7209	-10.6962	-10.7281	-10.7178	-10.3652	-9.4119	-8.30046	-7.36016	95.6912	95.6511	95.6075	95.6861	95.7316	95.8518	95.9172	96.0071	96.0362	96.0633	96.0345	96.0482	96.4066	97.3709	98.4989	99.4606
13.1	-17.0847	-17.1875	-17.1819	-17.1709	-17.142	-17.0277	-16.9617	-16.9306	-16.9053	-16.8791	-16.9494	-16.9812	-16.7489	-15.8881	-14.7607	-13.794	90.5251	90.4259	90.4346	90.4492	90.4818	90.5988	90.6679	90.702	90.7301	90.7587	90.6918	90.6635	90.9013	91.7724	92.916	93.9038
13.2	-23.245	-23.371	-23.3861	-23.4246	-23.3408	-23.3233	-23.2591	-23.2153	-23.2058	-23.2234	-23.2907	-23.3612	-23.2384	-22.5194	-21.3959	-20.3766	85.2843	85.1618	85.1499	85.1154	85.2023	85.2236	85.2908	85.3375	85.3499	85.3352	85.271	85.2041	85.3321	86.0608	87.1998	88.2397
13.3	-29.4972	-29.605	-29.7207	-29.69	-29.7062	-29.6609	-29.6158	-29.5886	-29.5972	-29.6379	-29.725	-29.831	-29.8087	-29.2494	-28.184	-27.1133	79.9786	79.874	79.7622	79.7963	79.7841	79.8328	79.8811	79.9113	79.9057	79.868	79.7842	79.6817	79.7089	80.2769	81.3571	82.4476
13.4	-35.8142	-35.9849	-36.0809	-36.1129	-36.1033	-36.0667	-36.031	-36.0189	-36.0428	-36.1064	-36.2159	-36.3538	-36.418	-36.0406	-35.0685	-34.0029	74.6172	74.4499	74.3575	74.3292	74.3426	74.3826	74.4216	74.4368	74.416	74.3555	74.2492	74.1149	74.0553	74.4405	75.4261	76.5105
13.5	-42.1683	-42.358	-42.4703	-42.5172	-42.5202	-42.4934	-42.3978	-42.4754	-42.5206	-42.6023	-42.7322	-42.8986	-43.0356	-42.8354	-42.0145	-40.9745	69.2069	69.0206	68.9119	68.8688	68.8694	68.8997	68.9982	68.9242	68.8822	68.8036	68.6769	68.5141	68.3814	68.5885	69.4215	70.479
13.6	-47.8938	-48.1831	-48.3065	-48.3639	-48.3761	-48.2963	-48.3481	-48.3666	-48.4305	-48.5345	-48.6866	-48.8838	-49.0945	-49.0878	-48.5043	-47.5517	64.4205	64.1349	64.0151	63.9615	63.953	64.036	63.9879	63.9727	63.912	63.8112	63.6625	63.4687	63.2622	63.275	63.8691	64.8377
13.7	-53.9428	-54.1551	-54.2883	-54.3541	-54.3043	-54.3608	-54.367	-54.3987	-54.4832	-54.6104	-54.7847	-55.0116	-55.2843	-55.4392	-55.1153	-54.3138	59.3614	59.1523	59.0226	58.9606	59.0138	58.9612	58.9584	58.93	58.8488	58.7249	58.5538	58.3304	58.0616	57.9121	58.2451	59.0607
13.8	-59.746	-60.2479	-60.3769	-60.3957	-60.4887	-60.4116	-60.4999	-60.5428	-60.6465	-60.7967	-60.9919	-61.2469	-61.5734	-61.8552	-61.7864	-61.196	54.5826	54.0845	53.9589	53.9436	53.8546	53.9351	53.8504	53.8109	53.7104	53.5634	53.3715	53.1198	52.7969	52.5199	52.5962	53.1988
13.9	-66.1459	-66.4354	-66.5794	-66.6574	-66.6886	-66.6857	-66.7161	-66.7054	-66.8883	-67.0629	-67.2782	-67.5668	-67.9409	-68.3243	-68.4792	-68.1335	49.2255	48.939	48.7984	48.724	48.6965	48.703	48.676	48.6899	48.5103	48.3389	48.1266	47.8412	47.4706	47.0913	46.9425	47.2983
14	-72.4707	-72.6955	-72.842	-72.9234	-72.9582	-72.9608	-72.9977	-73.0573	-73.1894	-73.3868	-73.626	-73.9482	-74.3653	-74.8303	-75.1725	-75.0923	43.9377	43.7157	43.5724	43.4945	43.4634	43.4642	43.4307	43.3744	43.2453	43.051	42.8148	42.4955	42.0815	41.62	41.2827	41.3709
14.1	-77.9326	-78.1577	-78.304	-78.3877	-78.4258	-78.4357	-78.4762	-78.5376	-78.6891	-78.8968	-79.1657	-79.5202	-79.9792	-80.5133	-81.0115	-81.2035	39.39	39.1676	39.0245	38.9442	38.9098	38.9033	38.8663	38.8081	38.6597	38.455	38.1889	37.8371	37.381	36.85	36.3557	36.1699
14.2	-83.5641	-83.7881	-83.935	-84.0214	-84.0637	-84.0799	-84.1215	-84.192	-84.3448	-84.5671	-84.8719	-85.2547	-85.7493	-86.3416	-86.9518	-87.3825	34.7248	34.5032	34.3594	34.2764	34.2377	34.2249	34.1868	34.1195	33.9697	33.7504	33.4482	33.068	32.5759	31.9862	31.3791	30.953
14.3	-89.374	-89.6007	-89.7503	-89.8406	-89.8876	-89.9075	-89.9538	-90.0238	-90.1868	-90.4195	-90.7578	-91.1649	-91.6924	-92.3276	-93.0175	-93.6321	29.921	29.6966	29.55	29.4629	29.4195	29.403	29.3601	29.2932	29.1332	28.9032	28.5673	28.1625	27.6372	27.0041	26.3165	25.7049
14.4	-95.3493	-95.5805	-95.7337	-95.8303	-95.8833	-95.9106	-95.952	-95.9963	-96.1966	-96.4457	-96.8025	-97.2423	-97.7998	-98.4771	-99.2372	-99.9838	24.975	24.746	24.5955	24.502	24.4524	24.4284	24.3903	24.3492	24.1516	23.9051	23.5505	23.1126	22.5568	21.881	21.1225	20.3777
14.5	-101.45	-101.685	-101.841	-101.939	-101.995	-102.027	-102.075	-102.179	-102.341	-102.608	-102.983	-103.456	-104.041	-104.753	-105.565	-106.398	19.905	19.6721	19.519	19.4239	19.3706	19.3421	19.2968	19.1958	19.037	18.7723	18.3993	17.9276	17.3442	16.6328	15.8212	14.9894
14.6	-106.481	-106.721	-106.882	-106.985	-107.048	-107.092	-107.149	-107.262	-107.444	-107.728	-108.116	-108.613	-109.217	-109.954	-110.782	-111.655	15.7172	15.4789	15.3201	15.2197	15.1597	15.1194	15.0652	14.9552	14.7757	14.4941	14.1077	13.6122	13.0097	12.2726	11.445	10.5725
14.7	-111.69	-111.934	-112.101	-112.211	-112.28	-112.334	-112.407	-112.531	-112.739	-113.03	-113.435	-113.945	-114.565	-115.305	-116.127	-117.013	11.4071	11.1642	10.9999	10.8926	10.8263	10.7763	10.7062	10.5851	10.3793	10.0904	9.68671	9.1779	8.55908	7.81894	6.99712	6.10983
14.8	-117.031	-117.334	-117.508	-117.625	-117.703	-117.766	-117.859	-118.005	-118.231	-118.537	-118.95	-119.468	-120.102	-120.826	-121.641	-122.545	7.0136	6.71175	6.54054	6.42625	6.35086	6.29141	6.20134	6.05758	5.83373	5.52989	5.11865	4.60091	3.96747	3.24317	2.42836	1.52306
14.9	-122.656	-122.915	-123.098	-123.224	-123.312	-123.387	-123.498	-123.655	-123.915	-124.231	-124.654	-125.177	-125.813	-126.537	-127.356	-128.281	2.37292	2.11531	1.93417	1.8115	1.72572	1.65394	1.54627	1.39163	1.13379	0.819261	0.398164	-0.124524	-0.760111	-1.48492	-2.30503	-3.23199
15	-128.393	-128.661	-128.855	-128.99	-129.087	-129.178	-129.304	-129.472	-129.765	-130.079	-130.519	-131.049	-131.685	-132.423	-133.259	-134.203	-2.35879	-2.62535	-2.81719	-2.94982	-3.0447	-3.13229	-3.2557	-3.4213	-3.71165	-4.02465	-4.46317	-4.99284	-5.62873	-6.3679	-7.20512	-8.15143
